File: Submissions/Submission 1/Supplementary Materials/Data to prepare for SM/Weighting_functions/D10_7235-40-7_Beta-carotene.abs.txt
Wavelength (nm)	D10 abs e
200.00	88524
202.00	83072
204.00	79038
206.00	75406
208.00	71589
210.00	67612
212.00	63087
214.00	58596
216.00	54567
218.00	50512
220.00	46794
222.00	43655
224.00	40703
226.00	37971
228.00	35785
230.00	34133
232.00	32750
234.00	31598
236.00	30937
238.00	30458
240.00	30115
242.00	29855
244.00	29654
246.00	29354
248.00	29039
250.00	28844
252.00	28886
254.00	29025
256.00	29112
258.00	29084
260.00	29303
262.00	29636
264.00	30169
266.00	30633
268.00	30770
270.00	30718
272.00	30636
274.00	30275
276.00	29666
278.00	29161
280.00	28361
282.00	27456
284.00	26384
286.00	25044
288.00	23537
290.00	22178
292.00	20869
294.00	19560
296.00	18455
298.00	17336
300.00	16400
302.00	15679
304.00	15172
306.00	14858
308.00	14651
310.00	14710
312.00	14771
314.00	14976
316.00	15259
318.00	15435
320.00	15767
322.00	15954
324.00	16219
326.00	16573
328.00	17015
330.00	17364
332.00	17728
334.00	18034
336.00	18216
338.00	18498
340.00	18706
342.00	18791
344.00	19049
346.00	19233
348.00	19505
350.00	19819
352.00	20341
354.00	20831
356.00	21257
358.00	21916
360.00	22556
362.00	23216
364.00	24066
366.00	25054
368.00	26501
370.00	28253
372.00	30144
374.00	32309
376.00	34516
378.00	36403
380.00	38135
382.00	39670
384.00	41285
386.00	43279
388.00	45639
390.00	48573
392.00	52093
394.00	56263
396.00	60302
398.00	64144
400.00	67581
402.00	70174
404.00	72434
406.00	74356
408.00	76468
410.00	79038
412.00	82708
414.00	86704
416.00	91716
418.00	97228
420.00	1.0228e+05
422.00	1.0693e+05
424.00	1.1038e+05
426.00	1.1276e+05
428.00	1.1374e+05
430.00	1.1384e+05
432.00	1.1371e+05
434.00	1.1389e+05
436.00	1.1512e+05
438.00	1.1743e+05
440.00	1.2086e+05
442.00	1.2529e+05
444.00	1.2970e+05
446.00	1.3417e+05
448.00	1.3767e+05
450.00	1.3931e+05
452.00	1.3909e+05
454.00	1.3713e+05
456.00	1.3308e+05
458.00	1.2786e+05
460.00	1.2234e+05
462.00	1.1659e+05
464.00	1.1157e+05
466.00	1.0832e+05
468.00	1.0630e+05
470.00	1.0583e+05
472.00	1.0641e+05
474.00	1.0731e+05
476.00	1.0818e+05
478.00	1.0815e+05
480.00	1.0649e+05
482.00	1.0341e+05
484.00	98495
486.00	92012
488.00	84573
490.00	75247
492.00	66028
494.00	56943
496.00	48177
498.00	40097
500.00	32983
502.00	26903
504.00	21654
506.00	17386
508.00	13964
510.00	11193
512.00	9146.6
514.00	7436.8
516.00	6141.0
518.00	5210.4
520.00	4398.7
522.00	3679.3
524.00	3240.7
526.00	2798.1
528.00	2404.1
530.00	2238.5
532.00	1944.1
534.00	1709.1
536.00	1619.4
538.00	1444.4
540.00	1324.4
542.00	1137.1
544.00	1112.9
546.00	999.05
548.00	877.20
550.00	789.32
552.00	745.95
554.00	782.12
556.00	603.10
558.00	616.52
560.00	546.38
562.00	552.15
564.00	450.16
566.00	404.59
568.00	442.96
570.00	392.31
572.00	394.51
574.00	335.90
576.00	367.36
578.00	341.36
580.00	222.01
582.00	364.10
584.00	225.27
586.00	283.50
588.00	320.35
590.00	218.07
592.00	115.02
594.00	224.97
596.00	125.87
598.00	113.96
600.00	114.65